
Integration time [ms]: 1000.000
Averaging Nr. [scans]: 1
Smoothing Nr. [pixels]: 0
Data measured with spectrometer [name]: 1308032U1
Wave   ;Sample   ;Dark     ;Reference;Scope
[nm]   ;[counts] ;[counts] ;[counts] 

175.728; 3698.667;  654.278; 3579.056
176.329; 3453.667;  569.278; 3311.056
176.930; 3553.667;  627.278; 3417.056
177.530; 3381.667;  545.278; 3324.056
178.131; 3006.667;  339.278; 2905.056
178.732; 3040.667;  510.278; 2899.056
179.332; 3010.667;  533.278; 2879.056
179.933; 3730.667;  654.278; 3708.056
180.534; 2894.667;  485.278; 2755.056
181.134; 2746.667;  480.278; 2716.056
181.735; 2513.667;  402.278; 2447.056
182.335; 2566.667;  425.278; 2561.056
182.936; 2524.667;  406.278; 2423.056
183.536; 2338.667;  381.278; 2199.056
184.137; 2494.667;  405.278; 2385.056
184.737; 2200.667;  376.278; 2163.056
185.338; 2342.667;  339.278; 2260.056
185.938; 2199.667;  356.278; 2141.056
186.538; 2328.667;  361.278; 2225.056
187.139; 2218.667;  317.278; 2074.056
187.739; 2163.667;  347.278; 2103.056
188.339; 2024.667;  308.278; 1973.056
188.939; 2219.667;  335.278; 2086.056
189.540; 2039.667;  309.278; 2024.056
190.140; 1906.667;  275.278; 1752.056
190.740; 1901.667;  258.278; 1773.056
191.340; 2053.667;  319.278; 1948.056
191.940; 1759.667;  268.278; 1720.056
192.540; 1929.667;  289.278; 1829.056
193.140; 1698.667;  244.278; 1611.056
193.740; 1716.667;  254.278; 1590.056
194.340; 1782.667;  260.278; 1665.056
194.940; 1705.667;  237.278; 1665.056
195.540; 1654.667;  241.278; 1616.056
196.140; 1740.667;  263.278; 1653.056
196.740; 1781.667;  262.278; 1770.056
197.340; 1474.667;  217.278; 1418.056
197.940; 1654.667;  223.278; 1602.056
198.539; 1418.667;  163.278; 1337.056
199.139; 1383.667;  196.278; 1322.056
199.739; 1578.667;  216.278; 1524.056
200.339; 1578.667;  235.278; 1400.056
200.938; 1554.667;  206.278; 1404.056
201.538; 1434.667;  208.278; 1418.056
202.138; 1339.667;  159.278; 1326.056
202.737; 1394.667;  179.278; 1313.056
203.337; 1516.667;  222.278; 1427.056
203.936; 1264.667;  176.278; 1249.056
204.536; 1380.667;  159.278; 1310.056
205.135; 1447.667;  198.278; 1346.056
205.735; 1418.667;  154.278; 1342.056
206.334; 1317.667;  202.278; 1301.056
206.934; 1401.667;  191.278; 1372.056
207.533; 1317.667;  168.278; 1282.056
208.132; 1417.667;  172.278; 1280.056
208.732; 1544.667;  182.278; 1440.056
209.331; 1388.667;  158.278; 1358.056
209.930; 1582.667;  226.278; 1557.056
210.529; 1374.667;  181.278; 1276.056
211.129; 1324.667;  161.278; 1233.056
211.728; 1669.667;  224.278; 1585.056
212.327; 1319.667;  152.278; 1178.056
212.926; 1394.667;  106.278; 1308.056
213.525; 1406.667;  173.278; 1383.056
214.124; 1231.667;  167.278; 1172.056
214.723; 1242.667;  169.278; 1200.056
215.322; 1183.667;   97.278; 1060.056
215.921; 1202.667;  156.278; 1095.056
216.520; 1296.667;  139.278; 1191.056
217.119; 1253.667;  158.278; 1165.056
217.718; 1184.667;  153.278; 1101.056
218.317; 1285.667;  173.278; 1199.056
218.916; 1444.667;  183.278; 1389.056
219.514; 1431.667;  200.278; 1325.056
220.113; 1688.667;  192.278; 1596.056
220.712; 1229.667;  175.278; 1162.056
221.311; 1654.667;  215.278; 1563.056
221.909; 1263.667;  168.278; 1162.056
222.508; 1503.667;  203.278; 1402.056
223.107; 1313.667;  175.278; 1219.056
223.705; 1360.667;  150.278; 1318.056
224.304; 1414.667;  162.278; 1373.056
224.903; 1205.667;  167.278; 1122.056
225.501; 1355.667;  208.278; 1276.056
226.100; 1256.667;  114.278; 1171.056
226.698; 1109.667;  132.278;  996.056
227.296; 1318.667;  150.278; 1212.056
227.895; 1334.667;  174.278; 1294.056
228.493; 1315.667;  165.278; 1153.056
229.092; 1143.667;  114.278; 1053.056
229.690; 1352.667;  143.278; 1237.056
230.288; 1532.667;  226.278; 1479.056
230.887; 1364.667;  148.278; 1276.056
231.485; 1127.667;  163.278; 1114.056
232.083; 1199.667;  168.278; 1082.056
232.681; 1401.667;  204.278; 1282.056
233.279; 3227.667;  504.278; 3029.056
233.877; 1223.667;  153.278; 1057.056
234.476; 1191.667;  118.278; 1132.056
235.074; 1465.667;  185.278; 1380.056
235.672; 1152.667;  149.278; 1082.056
236.270; 1305.667;  149.278; 1246.056
236.868; 1173.667;  139.278; 1046.056
237.466; 1291.667;  176.278; 1189.056
238.064; 1202.667;  113.278; 1171.056
238.661; 1293.667;  175.278; 1228.056
239.259; 1288.667;  173.278; 1164.056
239.857; 1238.667;  154.278; 1160.056
240.455; 1127.667;  135.278; 1038.056
241.053; 1196.667;  141.278; 1123.056
241.651; 1160.667;  132.278; 1111.056
242.248; 1399.667;  197.278; 1331.056
242.846; 1144.667;  136.278; 1061.056
243.444; 1221.667;  142.278; 1124.056
244.041; 1309.667;  103.278; 1171.056
244.639; 1277.667;  181.278; 1209.056
245.236; 1153.667;  119.278; 1107.056
245.834; 1031.667;  137.278;  992.056
246.432; 1234.667;  166.278; 1157.056
247.029; 1358.667;  180.278; 1297.056
247.626; 1368.667;  163.278; 1244.056
248.224; 1388.667;  200.278; 1267.056
248.821; 1217.667;  117.278; 1137.056
249.419; 1232.667;  162.278; 1204.056
250.016; 1170.667;  151.278; 1032.056
250.613; 1285.667;  168.278; 1161.056
251.211; 1437.667;  165.278; 1319.056
251.808; 1222.667;  145.278; 1132.056
252.405; 1345.667;  164.278; 1275.056
253.002; 1390.667;  174.278; 1389.056
253.600; 1408.667;  169.278; 1268.056
254.197; 1286.667;  161.278; 1197.056
254.794; 1312.667;  171.278; 1201.056
255.391; 1258.667;  175.278; 1199.056
255.988; 1194.667;  116.278; 1096.056
256.585; 1223.667;  163.278; 1157.056
257.182; 1336.667;  159.278; 1234.056
257.779; 1155.667;  152.278; 1066.056
258.376; 1270.667;  164.278; 1173.056
258.973; 1208.667;  175.278; 1145.056
259.570; 1293.667;   94.278; 1234.056
260.167; 1377.667;  162.278; 1336.056
260.763; 1221.667;  159.278; 1178.056
261.360; 1356.667;  159.278; 1240.056
261.957; 1701.667;  196.278; 1590.056
262.554; 1486.667;  200.278; 1490.056
263.150; 1460.667;  146.278; 1377.056
263.747; 1330.667;  156.278; 1294.056
264.344; 1267.667;  158.278; 1165.056
264.940; 1270.667;  163.278; 1186.056
265.537; 1326.667;  177.278; 1192.056
266.134; 1481.667;  194.278; 1380.056
266.730; 1276.667;  157.278; 1214.056
267.327; 1409.667;  176.278; 1320.056
267.923; 1276.667;  164.278; 1210.056
268.519; 1260.667;  179.278; 1121.056
269.116; 1318.667;  168.278; 1235.056
269.712; 1125.667;  113.278; 1038.056
270.309; 1164.667;  109.278; 1059.056
270.905; 1343.667;  177.278; 1272.056
271.501; 1327.667;  194.278; 1254.056
272.098; 1350.667;  165.278; 1233.056
272.694; 1468.667;  219.278; 1366.056
273.290; 1281.667;  147.278; 1163.056
273.886; 1311.667;  117.278; 1245.056
274.482; 1351.667;  156.278; 1168.056
275.078; 1466.667;  211.278; 1404.056
275.675; 1297.667;  174.278; 1206.056
276.271; 1198.667;  140.278; 1079.056
276.867; 1177.667;  165.278; 1086.056
277.463; 1263.667;  167.278; 1289.056
278.059; 1380.667;  148.278; 1281.056
278.655; 1174.667;  172.278; 1112.056
279.250; 1296.667;  165.278; 1187.056
279.846; 1092.667;  143.278;  982.056
280.442; 1129.667;  140.278; 1046.056
281.038; 1359.667;  183.278; 1384.056
281.634; 1206.667;  131.278; 1149.056
282.230; 1245.667;  181.278; 1181.056
282.825; 1251.667;  160.278; 1158.056
283.421; 1034.667;  127.278; 1004.056
284.017; 1147.667;   92.278; 1017.056
284.612; 1108.667;  134.278; 1150.056
285.208; 1208.667;  117.278; 1132.056
285.804; 1365.667;  191.278; 1264.056
286.399; 1172.667;  144.278; 1063.056
286.995; 1143.667;  145.278; 1098.056
287.590; 1349.667;  178.278; 1212.056
288.186; 1225.667;  105.278; 1157.056
288.781; 1316.667;  166.278; 1261.056
289.376; 1083.667;  137.278; 1101.056
289.972; 1189.667;  155.278; 1148.056
290.567; 1216.667;  160.278; 1125.056
291.162; 1360.667;  177.278; 1304.056
291.758; 1197.667;  148.278; 1184.056
292.353; 1141.667;  111.278; 1100.056
292.948; 1186.667;  178.278; 1125.056
293.543; 1317.667;  209.278; 1276.056
294.139; 1273.667;  191.278; 1225.056
294.734; 1172.667;  153.278; 1153.056
295.329; 1350.667;  188.278; 1313.056
295.924; 1194.667;  134.278; 1184.056
296.519; 1106.667;  145.278; 1099.056
297.114; 1264.667;  152.278; 1282.056
297.709; 1369.667;  183.278; 1326.056
298.304; 1216.667;  147.278; 1138.056
298.899; 1140.667;  126.278; 1167.056
299.494; 1254.667;  139.278; 1195.056
300.089; 1433.667;  197.278; 1356.056
300.683; 1174.667;  152.278; 1158.056
301.278; 1239.667;  188.278; 1208.056
301.873; 1409.667;  182.278; 1361.056
302.468; 1480.667;  190.278; 1459.056
303.062; 1170.667;  147.278; 1203.056
303.657; 1278.667;  107.278; 1250.056
304.252; 1417.667;  181.278; 1351.056
304.846; 1270.667;  126.278; 1230.056
305.441; 1531.667;  198.278; 1475.056
306.036; 1384.667;  202.278; 1375.056
306.630; 1374.667;  152.278; 1338.056
307.225; 1402.667;  213.278; 1359.056
307.819; 1316.667;  134.278; 1282.056
308.413; 1177.667;  152.278; 1155.056
309.008; 1053.667;  132.278; 1011.056
309.602; 1352.667;  181.278; 1364.056
310.197; 1480.667;  189.278; 1445.056
310.791; 1221.667;  132.278; 1180.056
311.385; 1056.667;  127.278; 1103.056
311.979; 1118.667;  155.278; 1119.056
312.574; 1181.667;  161.278; 1103.056
313.168; 1275.667;  163.278; 1156.056
313.762; 1060.667;  111.278; 1071.056
314.356; 1287.667;  190.278; 1301.056
314.950; 1518.667;  190.278; 1519.056
315.544; 1384.667;  179.278; 1303.056
316.138; 1367.667;  182.278; 1321.056
316.732; 1297.667;  180.278; 1245.056
317.326; 1163.667;  138.278; 1194.056
317.920; 1070.667;  160.278; 1123.056
318.514; 1295.667;  168.278; 1287.056
319.108; 1187.667;  102.278; 1150.056
319.702; 1338.667;  191.278; 1306.056
320.296; 1287.667;  158.278; 1226.056
320.890; 1270.667;  157.278; 1263.056
321.483; 1265.667;  157.278; 1255.056
322.077; 1113.667;  140.278; 1062.056
322.671; 1246.667;  162.278; 1192.056
323.264; 1071.667;  148.278; 1020.056
323.858; 1122.667;  113.278; 1037.056
324.452; 1234.667;  127.278; 1209.056
325.045; 1128.667;  155.278; 1096.056
325.639; 1110.667;  148.278; 1125.056
326.232; 1169.667;  157.278; 1117.056
326.826; 1516.667;  209.278; 1466.056
327.419; 1124.667;  106.278; 1032.056
328.013; 1123.667;  128.278; 1161.056
328.606; 1166.667;  165.278; 1182.056
329.200; 1282.667;  181.278; 1270.056
329.793; 1145.667;  147.278; 1060.056
330.386; 1309.667;  180.278; 1355.056
330.979; 1459.667;  207.278; 1396.056
331.573; 1356.667;  173.278; 1376.056
332.166; 1258.667;  181.278; 1214.056
332.759; 1254.667;  166.278; 1239.056
333.352; 1298.667;  147.278; 1251.056
333.945; 1279.667;  170.278; 1295.056
334.538; 1217.667;  159.278; 1147.056
335.131; 1124.667;  147.278; 1130.056
335.724; 1422.667;  174.278; 1353.056
336.317; 1268.667;  172.278; 1241.056
336.910; 1377.667;  204.278; 1329.056
337.503; 1294.667;  140.278; 1271.056
338.096; 1413.667;  210.278; 1346.056
338.689; 1218.667;  132.278; 1170.056
339.282; 1125.667;  167.278; 1126.056
339.875; 1266.667;  171.278; 1224.056
340.468; 1320.667;  187.278; 1267.056
341.060; 1228.667;  160.278; 1186.056
341.653; 1324.667;  153.278; 1274.056
342.246; 1236.667;  150.278; 1280.056
342.838; 1208.667;  182.278; 1155.056
343.431; 1345.667;  188.278; 1259.056
344.024; 1303.667;  191.278; 1304.056
344.616; 1179.667;  167.278; 1154.056
345.209; 1373.667;  192.278; 1279.056
345.801; 1003.667;  128.278; 1029.056
346.394; 1308.667;  163.278; 1321.056
346.986; 1271.667;  158.278; 1199.056
347.578; 1189.667;  152.278; 1090.056
348.171; 1252.667;  161.278; 1203.056
348.763; 1187.667;  153.278; 1100.056
349.355; 1155.667;  134.278; 1176.056
349.948; 1659.667;  210.278; 1653.056
350.540; 1426.667;  187.278; 1400.056
351.132; 1351.667;  195.278; 1297.056
351.724; 1181.667;  133.278; 1161.056
352.316; 1201.667;  166.278; 1171.056
352.909; 1365.667;  136.278; 1360.056
353.501; 1212.667;  134.278; 1243.056
354.093; 1295.667;  154.278; 1290.056
354.685; 1312.667;  167.278; 1252.056
355.277; 1146.667;  132.278; 1101.056
355.869; 1370.667;  191.278; 1303.056
356.461; 1323.667;  140.278; 1287.056
357.052; 1145.667;  164.278; 1142.056
357.644; 1393.667;  184.278; 1351.056
358.236; 1182.667;  149.278; 1138.056
358.828; 1114.667;  134.278; 1059.056
359.420; 1381.667;  209.278; 1309.056
360.011; 1528.667;  187.278; 1474.056
360.603; 1664.667;  249.278; 1681.056
361.195; 1314.667;  195.278; 1288.056
361.786; 1366.667;  190.278; 1313.056
362.378; 1116.667;  135.278; 1116.056
362.970; 1117.667;  130.278; 1044.056
363.561; 1099.667;  107.278; 1062.056
364.153; 1174.667;  140.278; 1155.056
364.744; 1260.667;  166.278; 1150.056
365.336; 1185.667;  132.278; 1169.056
365.927; 1148.667;  150.278; 1167.056
366.518; 1347.667;  178.278; 1256.056
367.110; 1416.667;  181.278; 1415.056
367.701; 1091.667;  150.278; 1078.056
368.292; 1424.667;  187.278; 1356.056
368.884; 1199.667;  152.278; 1143.056
369.475; 1465.667;  210.278; 1441.056
370.066; 1205.667;  173.278; 1209.056
370.657; 1437.667;  158.278; 1374.056
371.248; 1131.667;  168.278; 1063.056
371.840; 1241.667;  147.278; 1211.056
372.431; 1194.667;  160.278; 1168.056
373.022; 1152.667;  163.278; 1094.056
373.613; 1352.667;  182.278; 1332.056
374.204; 1337.667;  159.278; 1299.056
374.795; 1132.667;  124.278; 1089.056
375.385; 1382.667;  195.278; 1371.056
375.976; 1409.667;  180.278; 1362.056
376.567; 1215.667;  188.278; 1221.056
377.158; 1340.667;  190.278; 1245.056
377.749; 1207.667;  153.278; 1208.056
378.339; 1208.667;  186.278; 1217.056
378.930; 1228.667;  171.278; 1198.056
379.521; 1477.667;  217.278; 1412.056
380.112; 1319.667;  184.278; 1304.056
380.702; 1373.667;  141.278; 1295.056
381.293; 1197.667;  124.278; 1218.056
381.883; 1365.667;  176.278; 1330.056
382.474; 1448.667;  177.278; 1405.056
383.064; 1227.667;  163.278; 1159.056
383.655; 1420.667;  191.278; 1387.056
384.245; 1336.667;  163.278; 1288.056
384.836; 1414.667;  183.278; 1384.056
385.426; 1245.667;  159.278; 1248.056
386.016; 1197.667;  138.278; 1203.056
386.607; 1399.667;  184.278; 1345.056
387.197; 1265.667;  166.278; 1233.056
387.787; 1186.667;  158.278; 1077.056
388.377; 1152.667;  100.278; 1113.056
388.967; 1214.667;  178.278; 1191.056
389.558; 1205.667;  105.278; 1178.056
390.148; 1316.667;  188.278; 1264.056
390.738; 1200.667;  172.278; 1172.056
391.328; 1157.667;  131.278; 1102.056
391.918; 1314.667;  144.278; 1309.056
392.508; 1368.667;  165.278; 1334.056
393.098; 1065.667;  131.278; 1095.056
393.688; 1239.667;  183.278; 1203.056
394.277; 1126.667;  116.278; 1100.056
394.867; 1292.667;  165.278; 1216.056
395.457; 1251.667;  113.278; 1236.056
396.047; 1460.667;  182.278; 1419.056
396.637; 1415.667;  174.278; 1403.056
397.226; 1342.667;  179.278; 1271.056
397.816; 1303.667;  145.278; 1269.056
398.406; 1255.667;  149.278; 1165.056
398.995; 1339.667;  156.278; 1297.056
399.585; 1275.667;  178.278; 1259.056
400.174; 1194.667;  168.278; 1223.056
400.764; 1273.667;  181.278; 1244.056
401.353; 1181.667;  153.278; 1130.056
401.943; 1201.667;  161.278; 1144.056
402.532; 1269.667;  106.278; 1201.056
403.122; 1182.667;  157.278; 1127.056
403.711; 1144.667;  163.278; 1129.056
404.300; 1274.667;  171.278; 1226.056
404.889; 1132.667;  125.278; 1103.056
405.479; 1210.667;  140.278; 1168.056
406.068; 1274.667;  153.278; 1235.056
406.657; 1511.667;  214.278; 1492.056
407.246; 1252.667;  192.278; 1192.056
407.835; 1243.667;  163.278; 1205.056
408.424; 1346.667;  167.278; 1353.056
409.014; 1320.667;  159.278; 1221.056
409.603; 1309.667;  162.278; 1225.056
410.192; 1291.667;  159.278; 1245.056
410.781; 1273.667;  170.278; 1260.056
411.369; 1054.667;   90.278;  996.056
411.958; 1047.667;  134.278;  964.056
412.547; 1166.667;  142.278; 1104.056
413.136; 1259.667;  140.278; 1076.056
413.725; 1276.667;  168.278; 1155.056
414.314; 1408.667;  158.278; 1343.056
414.902; 1353.667;  160.278; 1157.056
415.491; 1314.667;   98.278; 1175.056
416.080; 1385.667;  185.278; 1243.056
416.668; 1243.667;   91.278; 1079.056
417.257; 1417.667;  168.278; 1241.056
417.845; 1288.667;  105.278; 1146.056
418.434; 1360.667;  162.278; 1099.056
419.022; 1530.667;  171.278; 1351.056
419.611; 1545.667;  166.278; 1269.056
420.199; 1536.667;  133.278; 1178.056
420.788; 1535.667;  111.278; 1212.056
421.376; 1619.667;  172.278; 1363.056
421.964; 1442.667;   98.278; 1063.056
422.553; 1748.667;  196.278; 1382.056
423.141; 1587.667;  161.278; 1138.056
423.729; 1671.667;  148.278; 1167.056
424.317; 1729.667;  133.278; 1255.056
424.905; 1694.667;  188.278; 1195.056
425.494; 1669.667;  145.278; 1102.056
426.082; 1735.667;  155.278; 1094.056
426.670; 1973.667;  171.278; 1225.056
427.258; 2128.667;  157.278; 1301.056
427.846; 2100.667;  177.278; 1279.056
428.434; 2168.667;  151.278; 1226.056
429.022; 2143.667;  146.278; 1142.056
429.610; 2296.667;  174.278; 1180.056
430.197; 2481.667;  187.278; 1300.056
430.785; 2579.667;  153.278; 1299.056
431.373; 2549.667;  156.278; 1174.056
431.961; 2693.667;  166.278; 1324.056
432.549; 2843.667;  178.278; 1281.056
433.136; 2874.667;  178.278; 1219.056
433.724; 3127.667;  145.278; 1301.056
434.311; 3232.667;  139.278; 1240.056
434.899; 3468.667;  162.278; 1331.056
435.487; 3345.667;  150.278; 1112.056
436.074; 3922.667;  196.278; 1467.056
436.662; 3971.667;  215.278; 1358.056
437.249; 3995.667;  172.278; 1211.056
437.837; 4039.667;  116.278; 1051.056
438.424; 4336.667;  156.278; 1239.056
439.011; 4528.667;  171.278; 1211.056
439.599; 4697.667;  166.278; 1120.056
440.186; 5007.667;  161.278; 1169.056
440.773; 5333.667;  131.278; 1251.056
441.360; 5463.667;  129.278; 1137.056
441.948; 5913.667;  170.278; 1337.056
442.535; 6066.667;  154.278; 1245.056
443.122; 6431.667;  165.278; 1252.056
443.709; 6794.667;  182.278; 1259.056
444.296; 7035.667;  143.278; 1204.056
444.883; 7474.667;  172.278; 1310.056
445.470; 7650.667;  130.278; 1216.056
446.057; 8061.667;  163.278; 1179.056
446.644; 8344.667;  146.278; 1219.056
447.231; 8953.667;  200.278; 1423.056
447.818; 9336.667;  177.278; 1410.056
448.404; 9496.667;  130.278; 1227.056
448.991;10368.667;  190.278; 1757.056
449.578;10093.667;  140.278; 1267.056
450.165;10288.667;  155.278; 1277.056
450.751;10519.667;  101.278; 1270.056
451.338;10865.667;  178.278; 1411.056
451.925;10833.667;  146.278; 1182.056
452.511;10976.667;  167.278; 1281.056
453.098;10977.667;  176.278; 1256.056
453.684;11383.667;  209.278; 1658.056
454.271;11096.667;  190.278; 1431.056
454.857;10812.667;  178.278; 1274.056
455.443;10621.667;  120.278; 1168.056
456.030;10442.667;   93.278; 1199.056
456.616; 9989.667;  125.278; 1028.056
457.202; 9823.667;  156.278; 1147.056
457.789; 9479.667;  132.278; 1156.056
458.375; 9338.667;  161.278; 1161.056
458.961; 8996.667;  145.278; 1185.056
459.547; 8776.667;  167.278; 1239.056
460.133; 8357.667;  151.278; 1141.056
460.720; 8151.667;  163.278; 1263.056
461.306; 8074.667;  165.278; 1322.056
461.892; 8295.667;  247.278; 1908.056
462.478; 7503.667;  164.278; 1363.056
463.064; 7234.667;  196.278; 1324.056
463.650; 7017.667;  190.278; 1461.056
464.235; 6722.667;  163.278; 1318.056
464.821; 6459.667;  160.278; 1209.056
465.407; 6113.667;  123.278; 1085.056
465.993; 6106.667;  131.278; 1249.056
466.579; 6112.667;  174.278; 1342.056
467.164; 5634.667;  156.278; 1224.056
467.750; 5539.667;  175.278; 1236.056
468.336; 5280.667;  148.278; 1096.056
468.921; 5004.667;  146.278; 1098.056
469.507; 5287.667;  158.278; 1368.056
470.092; 5424.667;  201.278; 1605.056
470.678; 4683.667;  124.278; 1161.056
471.263; 4581.667;  145.278; 1211.056
471.849; 4589.667;  152.278; 1352.056
472.434; 4309.667;  162.278; 1213.056
473.020; 4029.667;   79.278; 1118.056
473.605; 3905.667;  155.278; 1128.056
474.190; 3884.667;  147.278; 1211.056
474.776; 3708.667;  169.278; 1195.056
475.361; 3634.667;  150.278; 1246.056
475.946; 3718.667;  176.278; 1364.056
476.531; 3508.667;  128.278; 1271.056
477.116; 3379.667;  162.278; 1255.056
477.701; 3447.667;  177.278; 1371.056
478.287; 3162.667;  144.278; 1146.056
478.872; 3094.667;  169.278; 1257.056
479.457; 3145.667;  199.278; 1273.056
480.042; 2921.667;  134.278; 1139.056
480.626; 2971.667;  205.278; 1255.056
481.211; 3042.667;  175.278; 1372.056
481.796; 2880.667;  155.278; 1216.056
482.381; 3478.667;  280.278; 1962.056
482.966; 2986.667;  216.278; 1467.056
483.551; 2789.667;  143.278; 1297.056
